#Distance(A)    Macroscopic-Average    Planar-Average
  0.0000             7.73293             7.73293
  0.1007             7.73293             7.73293
  0.2014             7.73293             7.73293
  0.3022             7.73293             7.73293
  0.4029             7.73293             7.73293
  0.5036             7.73293             7.73293
  0.6043             7.73293             7.73293
  0.7051             7.73293             7.73293
  0.8058             7.73293             7.73293
  0.9065             7.73293             7.73293
  1.0072             7.73293             7.73293
  1.1080             7.73293             7.73293
  1.2087             7.73293             7.73293
  1.3094             7.73293             7.73293
  1.4101             7.73293             7.73293
  1.5108             7.73293             7.73293
  1.6116             7.73293             7.73293
  1.7123             7.73293             7.73293
  1.8130             7.73293             7.73293
  1.9137             7.73293             7.73293
  2.0145             7.73293             7.73293
  2.1152             7.73293             7.73293
  2.2159             7.73292             7.73292
  2.3166             7.73292             7.73293
  2.4173             7.73292             7.73292
  2.5181             7.73292             7.73292
  2.6188             7.73292             7.73292
  2.7195             7.73292             7.73292
  2.8202             7.73292             7.73292
  2.9210             7.73292             7.73292
  3.0217             7.73292             7.73292
  3.1224             7.73292             7.73292
  3.2231             7.73292             7.73292
  3.3239             7.73292             7.73292
  3.4246             7.73292             7.73292
  3.5253             7.73292             7.73292
  3.6260             7.73292             7.73292
  3.7267             7.73292             7.73292
  3.8275             7.73292             7.73292
  3.9282             7.73292             7.73292
  4.0289             7.73292             7.73292
  4.1296             7.73292             7.73292
  4.2304             7.73292             7.73292
  4.3311             7.73292             7.73292
  4.4318             7.73292             7.73292
  4.5325             7.73292             7.73292
  4.6332             7.73292             7.73292
  4.7340             7.73292             7.73292
  4.8347             7.73292             7.73292
  4.9354             7.73292             7.73292
  5.0361             7.73292             7.73292
  5.1369             7.73292             7.73292
  5.2376             7.73292             7.73292
  5.3383             7.73291             7.73291
  5.4390             7.73291             7.73292
  5.5398             7.73291             7.73291
  5.6405             7.73291             7.73291
  5.7412             7.73291             7.73291
  5.8419             7.73291             7.73291
  5.9426             7.73291             7.73291
  6.0434             7.73291             7.73291
  6.1441             7.73291             7.73291
  6.2448             7.73291             7.73291
  6.3455             7.73291             7.73291
  6.4463             7.73291             7.73291
  6.5470             7.73291             7.73291
  6.6477             7.73291             7.73291
  6.7484             7.73291             7.73291
  6.8492             7.73291             7.73291
  6.9499             7.73291             7.73291
  7.0506             7.73291             7.73291
  7.1513             7.73291             7.73291
  7.2520             7.73291             7.73291
  7.3528             7.73291             7.73291
  7.4535             7.73291             7.73291
  7.5542             7.73291             7.73291
  7.6549             7.73291             7.73291
  7.7557             7.73291             7.73291
  7.8564             7.73291             7.73291
  7.9571             7.73290             7.73290
  8.0578             7.73290             7.73291
  8.1585             7.73290             7.73290
  8.2593             7.73290             7.73291
  8.3600             7.73290             7.73290
  8.4607             7.73290             7.73290
  8.5614             7.73290             7.73290
  8.6622             7.73290             7.73290
  8.7629             7.73290             7.73290
  8.8636             7.73290             7.73290
  8.9643             7.73290             7.73290
  9.0651             7.73290             7.73290
  9.1658             7.73290             7.73290
  9.2665             7.73290             7.73290
  9.3672             7.73290             7.73290
  9.4679             7.73290             7.73290
  9.5687             7.73290             7.73290
  9.6694             7.73290             7.73290
  9.7701             7.73290             7.73290
  9.8708             7.73290             7.73290
  9.9716             7.73290             7.73289
 10.0723             7.73290             7.73290
 10.1730             7.73290             7.73289
 10.2737             7.73289             7.73290
 10.3745             7.73289             7.73289
 10.4752             7.73289             7.73290
 10.5759             7.73289             7.73289
 10.6766             7.73289             7.73289
 10.7773             7.73289             7.73289
 10.8781             7.73289             7.73289
 10.9788             7.73289             7.73289
 11.0795             7.73289             7.73289
 11.1802             7.73289             7.73289
 11.2810             7.73289             7.73289
 11.3817             7.73289             7.73289
 11.4824             7.73289             7.73289
 11.5831             7.73289             7.73289
 11.6838             7.73289             7.73289
 11.7846             7.73289             7.73289
 11.8853             7.73289             7.73289
 11.9860             7.73289             7.73288
 12.0867             7.73289             7.73289
 12.1875             7.73289             7.73288
 12.2882             7.73288             7.73289
 12.3889             7.73288             7.73288
 12.4896             7.73288             7.73289
 12.5904             7.73288             7.73288
 12.6911             7.73288             7.73288
 12.7918             7.73288             7.73288
 12.8925             7.73288             7.73288
 12.9932             7.73288             7.73288
 13.0940             7.73288             7.73288
 13.1947             7.73288             7.73288
 13.2954             7.73288             7.73288
 13.3961             7.73288             7.73288
 13.4969             7.73288             7.73288
 13.5976             7.73288             7.73288
 13.6983             7.73288             7.73288
 13.7990             7.73288             7.73287
 13.8997             7.73288             7.73288
 14.0005             7.73287             7.73287
 14.1012             7.73287             7.73288
 14.2019             7.73287             7.73287
 14.3026             7.73287             7.73288
 14.4034             7.73287             7.73287
 14.5041             7.73287             7.73287
 14.6048             7.73287             7.73287
 14.7055             7.73287             7.73287
 14.8063             7.73287             7.73287
 14.9070             7.73287             7.73287
 15.0077             7.73287             7.73287
 15.1084             7.73287             7.73287
 15.2091             7.73287             7.73286
 15.3099             7.73287             7.73287
 15.4106             7.73287             7.73286
 15.5113             7.73286             7.73287
 15.6120             7.73286             7.73286
 15.7128             7.73286             7.73287
 15.8135             7.73286             7.73286
 15.9142             7.73286             7.73287
 16.0149             7.73286             7.73286
 16.1157             7.73286             7.73286
 16.2164             7.73286             7.73286
 16.3171             7.73286             7.73286
 16.4178             7.73286             7.73286
 16.5185             7.73286             7.73286
 16.6193             7.73286             7.73285
 16.7200             7.73286             7.73286
 16.8207             7.73286             7.73285
 16.9214             7.73285             7.73286
 17.0222             7.73285             7.73285
 17.1229             7.73285             7.73286
 17.2236             7.73285             7.73285
 17.3243             7.73285             7.73286
 17.4250             7.73285             7.73285
 17.5258             7.73285             7.73285
 17.6265             7.73285             7.73285
 17.7272             7.73285             7.73285
 17.8279             7.73285             7.73284
 17.9287             7.73285             7.73285
 18.0294             7.73285             7.73284
 18.1301             7.73285             7.73285
 18.2308             7.73284             7.73284
 18.3316             7.73284             7.73285
 18.4323             7.73284             7.73284
 18.5330             7.73284             7.73285
 18.6337             7.73284             7.73284
 18.7344             7.73284             7.73285
 18.8352             7.73284             7.73284
 18.9359             7.73284             7.73284
 19.0366             7.73284             7.73283
 19.1373             7.73284             7.73284
 19.2381             7.73284             7.73283
 19.3388             7.73284             7.73284
 19.4395             7.73283             7.73283
 19.5402             7.73283             7.73284
 19.6409             7.73283             7.73283
 19.7417             7.73283             7.73284
 19.8424             7.73283             7.73283
 19.9431             7.73283             7.73284
 20.0438             7.73283             7.73282
 20.1446             7.73283             7.73283
 20.2453             7.73283             7.73282
 20.3460             7.73283             7.73283
 20.4467             7.73283             7.73282
 20.5475             7.73282             7.73283
 20.6482             7.73282             7.73282
 20.7489             7.73282             7.73283
 20.8496             7.73282             7.73282
 20.9503             7.73282             7.73283
 21.0511             7.73282             7.73281
 21.1518             7.73282             7.73282
 21.2525             7.73282             7.73281
 21.3532             7.73282             7.73282
 21.4540             7.73281             7.73281
 21.5547             7.73281             7.73282
 21.6554             7.73281             7.73281
 21.7561             7.73281             7.73282
 21.8569             7.73281             7.73281
 21.9576             7.73281             7.73282
 22.0583             7.73281             7.73280
 22.1590             7.73281             7.73282
 22.2597             7.73280             7.73280
 22.3605             7.73280             7.73281
 22.4612             7.73280             7.73280
 22.5619             7.73280             7.73281
 22.6626             7.73279             7.73280
 22.7634             7.73279             7.73281
 22.8641             7.73278             7.73279
 22.9648             7.73278             7.73281
 23.0655             7.73277             7.73279
 23.1662             7.73276             7.73281
 23.2670             7.73274             7.73279
 23.3677             7.73272             7.73280
 23.4684             7.73270             7.73279
 23.5691             7.73266             7.73280
 23.6699             7.73262             7.73278
 23.7706             7.73256             7.73280
 23.8713             7.73248             7.73278
 23.9720             7.73237             7.73280
 24.0728             7.73222             7.73278
 24.1735             7.73202             7.73280
 24.2742             7.73175             7.73277
 24.3749             7.73140             7.73279
 24.4756             7.73091             7.73277
 24.5764             7.73026             7.73279
 24.6771             7.72939             7.73277
 24.7778             7.72822             7.73279
 24.8785             7.72664             7.73276
 24.9793             7.72450             7.73279
 25.0800             7.72161             7.73276
 25.1807             7.71777             7.73278
 25.2814             7.71275             7.73275
 25.3822             7.70630             7.73278
 25.4829             7.69818             7.73274
 25.5836             7.68812             7.73277
 25.6843             7.67588             7.73272
 25.7850             7.66119             7.73275
 25.8858             7.64379             7.73270
 25.9865             7.62343             7.73273
 26.0872             7.59988             7.73266
 26.1879             7.57293             7.73268
 26.2887             7.54237             7.73259
 26.3894             7.50803             7.73259
 26.4901             7.46972             7.73246
 26.5908             7.42721             7.73242
 26.6915             7.38026             7.73223
 26.7923             7.32858             7.73212
 26.8930             7.27184             7.73181
 26.9937             7.20968             7.73157
 27.0944             7.14169             7.73106
 27.1952             7.06746             7.73058
 27.2959             6.98658             7.72971
 27.3966             6.89863             7.72877
 27.4973             6.80320             7.72726
 27.5981             6.69993             7.72550
 27.6988             6.58849             7.72284
 27.7995             6.46864             7.71958
 27.9002             6.34015             7.71485
 28.0009             6.20294             7.70886
 28.1017             6.05699             7.70038
 28.2024             5.90241             7.68945
 28.3031             5.73945             7.67421
 28.4038             5.56845             7.65429
 28.5046             5.38982             7.62677
 28.6053             5.20398             7.59049
 28.7060             5.01141             7.54062
 28.8067             4.81257             7.47449
 28.9074             4.60793             7.38390
 29.0082             4.39797             7.26343
 29.1089             4.18319             7.09869
 29.2096             3.96407             6.87983
 29.3103             3.74107             6.58247
 29.4111             3.51460             6.23365
 29.5118             3.28504             5.72796
 29.6125             3.05271             4.88525
 29.7132             2.81792             3.72850
 29.8140             2.58103             2.41943
 29.9147             2.34248             1.17685
 30.0154             2.10283             0.16103
 30.1161             1.86272            -0.55288
 30.2168             1.62289            -0.99370
 30.3176             1.38414            -1.24676
 30.4183             1.14733            -1.41498
 30.5190             0.91334            -1.54688
 30.6197             0.68307            -1.62424
 30.7205             0.45738            -1.56312
 30.8212             0.23709            -1.28883
 30.9219             0.02297            -0.74654
 31.0226            -0.18435             0.02579
 31.1234            -0.38431             0.73878
 31.2241            -0.57648             1.06503
 31.3248            -0.76055             0.79903
 31.4255            -0.93637            -0.10363
 31.5262            -1.10391            -1.41940
 31.6270            -1.26327            -2.87331
 31.7277            -1.41457            -4.35096
 31.8284            -1.55800            -5.72055
 31.9291            -1.69368            -6.86875
 32.0299            -1.82178            -7.71519
 32.1306            -1.94244            -8.20489
 32.2313            -2.05583            -8.31154
 32.3320            -2.16214            -8.02818
 32.4327            -2.26156            -7.37609
 32.5335            -2.35429            -6.39507
 32.6342            -2.44051            -5.16047
 32.7349            -2.52034            -3.76735
 32.8356            -2.59390            -2.35497
 32.9364            -2.66128            -1.02721
 33.0371            -2.72258            -0.00072
 33.1378            -2.77801             0.43658
 33.2385            -2.82784             0.24117
 33.3393            -2.87242            -0.42884
 33.4400            -2.91215            -1.28573
 33.5407            -2.94744            -1.99603
 33.6414            -2.97870            -2.43830
 33.7421            -3.00639            -2.66361
 33.8429            -3.03093            -2.73506
 33.9436            -3.05273            -2.74980
 34.0443            -3.07220            -2.75245
 34.1450            -3.08967            -2.72727
 34.2458            -3.10546            -2.58915
 34.3465            -3.11984            -2.25827
 34.4472            -3.13300            -1.67600
 34.5479            -3.14511            -0.86140
 34.6486            -3.15628            -0.08295
 34.7494            -3.16658             0.32543
 34.8501            -3.17604             0.14985
 34.9508            -3.18470            -0.67264
 35.0515            -3.19263            -1.93774
 35.1523            -3.19994            -3.35890
 35.2530            -3.20673            -4.81172
 35.3537            -3.21311            -6.16852
 35.4544            -3.21913            -7.30968
 35.5552            -3.22480            -8.15457
 35.6559            -3.23015            -8.64399
 35.7566            -3.23518            -8.75178
 35.8573            -3.23991            -8.46786
 35.9580            -3.24438            -7.81360
 36.0588            -3.24862            -6.82560
 36.1595            -3.25267            -5.57865
 36.2602            -3.25654            -4.16403
 36.3609            -3.26023            -2.72113
 36.4617            -3.26367            -1.35494
 36.5624            -3.26683            -0.26586
 36.6631            -3.26968             0.24988
 36.7638            -3.27225             0.12376
 36.8646            -3.27460            -0.49773
 36.9653            -3.27679            -1.33838
 37.0660            -3.27886            -2.05793
 37.1667            -3.28086            -2.51142
 37.2674            -3.28282            -2.74426
 37.3682            -3.28477            -2.81790
 37.4689            -3.28672            -2.82877
 37.5696            -3.28869            -2.82850
 37.6703            -3.29067            -2.80611
 37.7711            -3.29267            -2.68175
 37.8718            -3.29467            -2.37108
 37.9725            -3.29667            -1.81548
 38.0732            -3.29863            -1.01701
 38.1739            -3.30053            -0.22426
 38.2747            -3.30232             0.22381
 38.3754            -3.30396             0.10213
 38.4761            -3.30541            -0.66961
 38.5768            -3.30668            -1.91036
 38.6776            -3.30781            -3.32471
 38.7783            -3.30888            -4.77827
 38.8790            -3.30994            -6.14778
 38.9797            -3.31100            -7.30889
 39.0805            -3.31207            -8.17984
 39.1812            -3.31313            -8.69813
 39.2819            -3.31415            -8.83633
 39.3826            -3.31515            -8.58184
 39.4833            -3.31613            -7.95460
 39.5841            -3.31710            -6.98873
 39.6848            -3.31809            -5.75690
 39.7855            -3.31909            -4.34756
 39.8862            -3.32008            -2.89814
 39.9870            -3.32099            -1.51659
 40.0877            -3.32177            -0.38659
 40.1884            -3.32238             0.18994
 40.2891            -3.32284             0.11949
 40.3899            -3.32318            -0.46461
 40.4906            -3.32347            -1.29740
 40.5913            -3.32373            -2.03513
 40.6920            -3.32401            -2.50864
 40.7927            -3.32432            -2.75659
 40.8935            -3.32470            -2.83886
 40.9942            -3.32515            -2.85061
 41.0949            -3.32567            -2.84998
 41.1956            -3.32627            -2.83109
 41.2964            -3.32695            -2.71957
 41.3971            -3.32768            -2.42750
 41.4978            -3.32846            -1.89603
 41.5985            -3.32924            -1.11316
 41.6992            -3.33001            -0.30586
 41.8000            -3.33073             0.18276
 41.9007            -3.33133             0.11663
 42.0014            -3.33178            -0.60132
 42.1021            -3.33209            -1.81416
 42.2029            -3.33229            -3.22085
 42.3036            -3.33246            -4.67463
 42.4043            -3.33264            -6.05725
 42.5050            -3.33286            -7.23956
 42.6058            -3.33312            -8.13867
 42.7065            -3.33340            -8.68848
 42.8072            -3.33368            -8.86034
 42.9079            -3.33396            -8.63890
 43.0086            -3.33425            -8.04266
 43.1094            -3.33456            -7.10310
 43.2101            -3.33490            -5.89070
 43.3108            -3.33529            -4.49113
 43.4115            -3.33570            -3.03927
 43.5123            -3.33605            -1.64657
 43.6130            -3.33630            -0.48112
 43.7137            -3.33641             0.15315
 43.8144            -3.33637             0.13712
 43.9151            -3.33624            -0.40949
 44.0159            -3.33605            -1.23342
 44.1166            -3.33586            -1.98949
 44.2173            -3.33570            -2.48503
 44.3180            -3.33558            -2.74957
 44.4188            -3.33553            -2.84237
 44.5195            -3.33556            -2.85615
 44.6202            -3.33569            -2.85585
 44.7209            -3.33590            -2.84017
 44.8217            -3.33619            -2.74110
 44.9224            -3.33655            -2.46722
 45.0231            -3.33696            -1.95966
 45.1238            -3.33740            -1.19408
 45.2245            -3.33783            -0.37505
 45.3253            -3.33821             0.15256
 45.4260            -3.33849             0.14108
 45.5267            -3.33864            -0.52170
 45.6274            -3.33864            -1.70405
 45.7282            -3.33854            -3.10206
 45.8289            -3.33841            -4.55530
 45.9296            -3.33829            -5.94997
 46.0303            -3.33822            -7.15307
 46.1311            -3.33820            -8.07982
 46.2318            -3.33820            -8.66125
 46.3325            -3.33822            -8.86671
 46.4332            -3.33824            -8.67883
 46.5339            -3.33827            -8.11388
 46.6347            -3.33833            -7.20154
 46.7354            -3.33843            -6.00927
 46.8361            -3.33858            -4.62091
 46.9368            -3.33876            -3.16753
 47.0376            -3.33890            -1.76521
 47.1383            -3.33895            -0.56729
 47.2390            -3.33885             0.12325
 47.3397            -3.33862             0.16218
 47.4404            -3.33830            -0.34576
 47.5412            -3.33792            -1.15861
 47.6419            -3.33755            -1.93225
 47.7426            -3.33720            -2.45086
 47.8433            -3.33690            -2.73307
 47.9441            -3.33668            -2.83766
 48.0448            -3.33654            -2.85449
 48.1455            -3.33650            -2.85470
 48.2462            -3.33655            -2.84193
 48.3470            -3.33669            -2.75450
 48.4477            -3.33690            -2.49845
 48.5484            -3.33717            -2.01415
 48.6491            -3.33748            -1.26742
 48.7498            -3.33778            -0.43922
 48.8506            -3.33804             0.12559
 48.9513            -3.33822             0.16805
 49.0520            -3.33826            -0.43852
 49.1527            -3.33816            -1.58762
 49.2535            -3.33796            -2.97600
 49.3542            -3.33772            -4.42787
 49.4549            -3.33750            -5.83374
 49.5556            -3.33733            -7.05723
 49.6563            -3.33721            -8.01141
 49.7571            -3.33712            -8.62453
 49.8578            -3.33705            -8.86387
 49.9585            -3.33698            -8.71003
 50.0592            -3.33692            -8.17708
 50.1600            -3.33690            -7.29286
 50.2607            -3.33692            -6.12179
 50.3614            -3.33699            -4.74603
 50.4621            -3.33709            -3.29249
 50.5629            -3.33716            -1.88179
 50.6636            -3.33715            -0.65443
 50.7643            -3.33700             0.09105
 50.8650            -3.33671             0.18553
 50.9657            -3.33633            -0.28202
 51.0665            -3.33589            -1.08120
 51.1672            -3.33545            -1.87074
 51.2679            -3.33503            -2.41299
 51.3686            -3.33467            -2.71330
 51.4694            -3.33438            -2.83057
 51.5701            -3.33417            -2.85099
 51.6708            -3.33406            -2.85183
 51.7715            -3.33405            -2.84137
 51.8723            -3.33412            -2.76476
 51.9730            -3.33427            -2.52595
 52.0737            -3.33449            -2.06441
 52.1744            -3.33473            -1.33774
 52.2751            -3.33498            -0.50318
 52.3759            -3.33520             0.09709
 52.4766            -3.33534             0.19243
 52.5773            -3.33534            -0.35699
 52.6780            -3.33520            -1.47020
 52.7788            -3.33496            -2.84761
 52.8795            -3.33468            -4.29746
 52.9802            -3.33440            -5.71332
 53.0809            -3.33418            -6.95671
 53.1816            -3.33401            -7.93768
 53.2824            -3.33388            -8.58246
 53.3831            -3.33376            -8.85548
 53.4838            -3.33365            -8.73602
 53.5845            -3.33355            -8.23522
 53.6853            -3.33348            -7.37985
 53.7860            -3.33346            -6.23059
 53.8867            -3.33349            -4.86864
 53.9874            -3.33355            -3.41586
 54.0882            -3.33359            -1.99784
 54.1889            -3.33355            -0.74363
 54.2896            -3.33338             0.05527
 54.3903            -3.33307             0.20615
 54.4910            -3.33266            -0.21944
 54.5918            -3.33219            -1.00213
 54.6925            -3.33172            -1.80573
 54.7932            -3.33127            -2.37185
 54.8939            -3.33087            -2.69079
 54.9947            -3.33054            -2.82142
 55.0954            -3.33030            -2.84618
 55.1961            -3.33015            -2.84762
 55.2968            -3.33010            -2.83917
 55.3976            -3.33014            -2.77248
 55.4983            -3.33027            -2.55065
 55.5990            -3.33045            -2.11126
 55.6997            -3.33067            -1.40595
 55.8004            -3.33090            -0.56783
 55.9012            -3.33110             0.06574
 56.0019            -3.33122             0.21292
 56.1026            -3.33121            -0.27885
 56.2033            -3.33107            -1.35345
 56.3041            -3.33081            -2.71858
 56.4048            -3.33050            -4.16561
 56.5055            -3.33021            -5.59036
 56.6062            -3.32996            -6.85299
 56.7069            -3.32977            -7.86024
 56.8077            -3.32961            -8.53639
 56.9084            -3.32947            -8.84300
 57.0091            -3.32934            -8.75800
 57.1098            -3.32923            -8.28967
 57.2106            -3.32914            -7.46359
 57.3113            -3.32909            -6.33686
 57.4120            -3.32910            -4.98963
 57.5127            -3.32914            -3.53879
 57.6135            -3.32917            -2.11417
 57.7142            -3.32913            -0.83574
 57.8149            -3.32895             0.01502
 57.9156            -3.32864             0.22284
 58.0163            -3.32822            -0.15908
 58.1171            -3.32774            -0.92268
 58.2178            -3.32725            -1.73812
 58.3185            -3.32678            -2.32837
 58.4192            -3.32637            -2.66633
 58.5200            -3.32602            -2.81104
 58.6207            -3.32576            -2.84078
 58.7214            -3.32559            -2.84299
 58.8221            -3.32552            -2.83610
 58.9228            -3.32554            -2.77853
 59.0236            -3.32565            -2.57316
 59.1243            -3.32581            -2.15544
 59.2250            -3.32602            -1.47236
 59.3257            -3.32624            -0.63356
 59.4265            -3.32644             0.03127
 59.5272            -3.32656             0.22899
 59.6279            -3.32656            -0.20470
 59.7286            -3.32642            -1.23821
 59.8294            -3.32616            -2.58937
 59.9301            -3.32585            -4.03304
 60.0308            -3.32555            -5.46539
 60.1315            -3.32529            -6.74669
 60.2322            -3.32509            -7.77950
 60.3330            -3.32493            -8.48690
 60.4337            -3.32478            -8.82684
 60.5344            -3.32465            -8.77650
 60.6351            -3.32453            -8.34075
 60.7359            -3.32444            -7.54457
 60.8366            -3.32438            -6.44092
 60.9373            -3.32439            -5.10945
 61.0380            -3.32443            -3.66156
 61.1388            -3.32447            -2.23117
 61.2395            -3.32443            -0.93087
 61.3402            -3.32427            -0.03019
 61.4409            -3.32397             0.23519
 61.5416            -3.32356            -0.10162
 61.6424            -3.32309            -0.84341
 61.7431            -3.32260            -1.66848
 61.8438            -3.32214            -2.28277
 61.9445            -3.32172            -2.64033
 62.0453            -3.32137            -2.79966
 62.1460            -3.32110            -2.83525
 62.2467            -3.32094            -2.83823
 62.3474            -3.32086            -2.83275
 62.4481            -3.32088            -2.78337
 62.5489            -3.32099            -2.59416
 62.6496            -3.32116            -2.19747
 62.7503            -3.32137            -1.53750
 62.8510            -3.32160            -0.70073
 62.9518            -3.32181            -0.00702
 63.0525            -3.32194             0.24004
 63.1532            -3.32196            -0.13554
 63.2539            -3.32184            -1.12540
 63.3547            -3.32160            -2.46093
 63.4554            -3.32130            -3.90053
 63.5561            -3.32101            -5.33939
 63.6568            -3.32075            -6.63864
 63.7575            -3.32056            -7.69649
 63.8583            -3.32040            -8.43477
 63.9590            -3.32027            -8.80794
 64.0597            -3.32014            -8.79226
 64.1604            -3.32003            -8.38937
 64.2612            -3.31994            -7.62340
 64.3619            -3.31990            -6.54357
 64.4626            -3.31990            -5.22859
 64.5633            -3.31996            -3.78492
 64.6640            -3.32001            -2.34928
 64.7648            -3.31999            -1.02947
 64.8655            -3.31985            -0.08080
 64.9662            -3.31958             0.24243
 65.0669            -3.31918            -0.04767
 65.1677            -3.31873            -0.76517
 65.2684            -3.31825            -1.59731
 65.3691            -3.31780            -2.23557
 65.4698            -3.31738            -2.61313
 65.5706            -3.31704            -2.78772
 65.6713            -3.31678            -2.82987
 65.7720            -3.31662            -2.83387
 65.8727            -3.31655            -2.82947
 65.9734            -3.31657            -2.78749
 66.0742            -3.31668            -2.61389
 66.1749            -3.31686            -2.23780
 66.2756            -3.31708            -1.60137
 66.3763            -3.31733            -0.76941
 66.4771            -3.31755            -0.04911
 66.5778            -3.31771             0.24582
 66.6785            -3.31775            -0.07161
 66.7792            -3.31766            -1.01558
 66.8800            -3.31744            -2.33345
 66.9807            -3.31716            -3.76850
 67.0814            -3.31687            -5.21256
 67.1821            -3.31663            -6.52914
 67.2828            -3.31645            -7.61130
 67.3836            -3.31630            -8.38025
 67.4843            -3.31618            -8.78638
 67.5850            -3.31607            -8.80548
 67.6857            -3.31597            -8.43556
 67.7865            -3.31590            -7.70029
 67.8872            -3.31586            -6.64481
 67.9879            -3.31588            -5.34721
 68.0886            -3.31594            -3.90883
 68.1893            -3.31601            -2.46868
 68.2901            -3.31602            -1.13138
 68.3908            -3.31591            -0.13702
 68.4915            -3.31566             0.24439
 68.5922            -3.31529             0.00231
 68.6930            -3.31486            -0.68836
 68.7937            -3.31440            -1.52505
 68.8944            -3.31395            -2.18680
 68.9951            -3.31355            -2.58501
 69.0959            -3.31322            -2.77524
 69.1966            -3.31297            -2.82489
 69.2973            -3.31281            -2.82999
 69.3980            -3.31275            -2.82660
 69.4987            -3.31278            -2.79111
 69.5995            -3.31290            -2.63273
 69.7002            -3.31309            -2.27659
 69.8009            -3.31333            -1.66417
 69.9016            -3.31359            -0.83952
 70.0024            -3.31383            -0.09520
 70.1031            -3.31402             0.24629
 70.2038            -3.31409            -0.01333
 70.3045            -3.31403            -0.90913
 70.4053            -3.31384            -2.20730
 70.5060            -3.31358            -3.63706
 70.6067            -3.31331            -5.08524
 70.7074            -3.31308            -6.41826
 70.8081            -3.31291            -7.52419
 70.9089            -3.31278            -8.32333
 71.0096            -3.31268            -8.76232
 71.1103            -3.31259            -8.81609
 71.2110            -3.31251            -8.47945
 71.3118            -3.31245            -7.77510
 71.4125            -3.31243            -6.74474
 71.5132            -3.31247            -5.46517
 71.6139            -3.31255            -4.03341
 71.7146            -3.31264            -2.58926
 71.8154            -3.31268            -1.23651
 71.9161            -3.31261            -0.19872
 72.0168            -3.31239             0.24079
 72.1175            -3.31206             0.04819
 72.2183            -3.31165            -0.61339
 72.3190            -3.31121            -1.45184
 72.4197            -3.31079            -2.13665
 72.5204            -3.31041            -2.55594
 72.6212            -3.31009            -2.76239
 72.7219            -3.30986            -2.82031
 72.8226            -3.30972            -2.82686
 72.9233            -3.30967            -2.82424
 73.0240            -3.30972            -2.79454
 73.1248            -3.30986            -2.65073
 73.2255            -3.31008            -2.31418
 73.3262            -3.31034            -1.72581
 73.4269            -3.31062            -0.91104
 73.5277            -3.31090            -0.14518
 73.6284            -3.31111             0.24124
 73.7291            -3.31123             0.03911
 73.8298            -3.31120            -0.80663
 73.9305            -3.31105            -2.08274
 74.0313            -3.31082            -3.50672
 74.1320            -3.31058            -4.95778
 74.2327            -3.31038            -6.30652
 74.3334            -3.31023            -7.43552
 74.4342            -3.31013            -8.26458
 74.5349            -3.31005            -8.73618
 74.6356            -3.30999            -8.82466
 74.7363            -3.30994            -8.52141
 74.8371            -3.30991            -7.84838
 74.9378            -3.30992            -6.84368
 75.0385            -3.30998            -5.58289
 75.1392            -3.31009            -4.15888
 75.2399            -3.31022            -2.71145
 75.3407            -3.31030            -1.34491
 75.4414            -3.31027            -0.26630
 75.5421            -3.31010             0.23127
 75.6428            -3.30980             0.08929
 75.7436            -3.30943            -0.54082
 75.8443            -3.30903            -1.37834
 75.9450            -3.30864            -2.08529
 76.0457            -3.30829            -2.52634
 76.1465            -3.30801            -2.74931
 76.2472            -3.30780            -2.81646
 76.3479            -3.30769            -2.82462
 76.4486            -3.30767            -2.82281
 76.5493            -3.30776            -2.79805
 76.6501            -3.30793            -2.66832
 76.7508            -3.30817            -2.35077
 76.8515            -3.30847            -1.78659
 76.9522            -3.30879            -0.98392
 77.0530            -3.30911            -0.19929
 77.1537            -3.30938             0.23059
 77.2544            -3.30955             0.08525
 77.3551            -3.30958            -0.70853
 77.4558            -3.30948            -1.96029
 77.5566            -3.30930            -3.37767
 77.6573            -3.30910            -4.83068
 77.7580            -3.30894            -6.19414
 77.8587            -3.30883            -7.34573
 77.9595            -3.30878            -8.20413
 78.0602            -3.30875            -8.70830
 78.1609            -3.30874            -8.83132
 78.2616            -3.30873            -8.56180
 78.3624            -3.30875            -7.92025
 78.4631            -3.30880            -6.94200
 78.5638            -3.30891            -5.70058
 78.6645            -3.30907            -4.28566
 78.7652            -3.30925            -2.83553
 78.8660            -3.30939            -1.45691
 78.9667            -3.30942            -0.33998
 79.0674            -3.30932             0.21513
 79.1681            -3.30909             0.12509
 79.2689            -3.30878            -0.47158
 79.3696            -3.30844            -1.30528
 79.4703            -3.30811            -2.03354
 79.5710            -3.30781            -2.49680
 79.6717            -3.30757            -2.73683
 79.7725            -3.30742            -2.81401
 79.8732            -3.30736            -2.82428
 79.9739            -3.30740            -2.82309
 80.0746            -3.30753            -2.80269
 80.1754            -3.30776            -2.68629
 80.2761            -3.30806            -2.38742
 80.3768            -3.30842            -1.84714
 80.4775            -3.30881            -1.05883
 80.5783            -3.30919            -0.25805
 80.6790            -3.30953             0.21351
 80.7797            -3.30978             0.12441
 80.8804            -3.30989            -0.61594
 80.9811            -3.30987            -1.84070
 81.0819            -3.30976            -3.25084
 81.1826            -3.30963            -4.70465
 81.2833            -3.30954            -6.08199
 81.3840            -3.30950            -7.25548
 81.4848            -3.30951            -8.14287
 81.5855            -3.30955            -8.67933
 81.6862            -3.30961            -8.83692
 81.7869            -3.30968            -8.60125
 81.8877            -3.30977            -7.99159
 81.9884            -3.30990            -7.04033
 82.0891            -3.31008            -5.81905
 82.1898            -3.31032            -4.41435
 82.2905            -3.31058            -2.96242
 82.3913            -3.31080            -1.57307
 82.4920            -3.31093            -0.42064
 82.5927            -3.31092             0.19149
 82.6934            -3.31079             0.15430
 82.7942            -3.31057            -0.40677
 82.8949            -3.31032            -1.23393
 82.9956            -3.31007            -1.98217
 83.0963            -3.30986            -2.46833
 83.1970            -3.30971            -2.72568
 83.2978            -3.30964            -2.81385
 83.3985            -3.30966            -2.82651
 83.4992            -3.30979            -2.82606
 83.5999            -3.31001            -2.80923
 83.7007            -3.31033            -2.70557
 83.8014            -3.31072            -2.42482
 83.9021            -3.31118            -1.90830
 84.0028            -3.31167            -1.13615
 84.1036            -3.31216            -0.32213
 84.2043            -3.31261             0.18951
 84.3050            -3.31297             0.15567
 84.4057            -3.31320            -0.52979
 84.5064            -3.31330            -1.72511
 84.6072            -3.31331            -3.12700
 84.7079            -3.31329            -4.58084
 84.8086            -3.31331            -5.97095
 84.9093            -3.31338            -7.16592
 85.0101            -3.31351            -8.08167
 85.1108            -3.31367            -8.65049
 85.2115            -3.31385            -8.84243
 85.3122            -3.31405            -8.64104
 85.4130            -3.31427            -8.06339
 85.5137            -3.31452            -7.13999
 85.6144            -3.31483            -5.93942
 85.7151            -3.31519            -4.54635
 85.8158            -3.31559            -3.09335
 85.9166            -3.31597            -1.69472
 86.0173            -3.31625            -0.50944
 86.1180            -3.31640             0.15865
 86.2187            -3.31643             0.17544
 86.3195            -3.31637            -0.34833
 86.4202            -3.31627            -1.16603
 86.5209            -3.31619            -1.93301
 86.6216            -3.31613            -2.44242
 86.7223            -3.31615            -2.71767
 86.8231            -3.31624            -2.81754
 86.9238            -3.31643            -2.83326
 87.0245            -3.31673            -2.83337
 87.1252            -3.31713            -2.81972
 87.2260            -3.31762            -2.72791
 87.3267            -3.31820            -2.46506
 87.4274            -3.31885            -1.97176
 87.5281            -3.31953            -1.21767
 87.6289            -3.32022            -0.39312
 87.7296            -3.32089             0.15662
 87.8303            -3.32147             0.17729
 87.9310            -3.32192            -0.45230
 88.0317            -3.32225            -1.61535
 88.1325            -3.32248            -3.00813
 88.2332            -3.32268            -4.46097
 88.3339            -3.32292            -5.86292
 88.4346            -3.32321            -7.07869
 88.5354            -3.32357            -8.02247
 88.6361            -3.32396            -8.62341
 88.7368            -3.32438            -8.84983
 88.8375            -3.32482            -8.68295
 88.9382            -3.32528            -8.13792
 89.0390            -3.32578            -7.24308
 89.1397            -3.32634            -6.06430
 89.2404            -3.32696            -4.68418
 89.3411            -3.32762            -3.23156
 89.4419            -3.32827            -1.82503
 89.5426            -3.32883            -0.61020
 89.6433            -3.32928             0.11243
 89.7440            -3.32960             0.18347
 89.8448            -3.32983            -0.30146
 89.9455            -3.33003            -1.10747
 90.0462            -3.33024            -1.89172
 90.1469            -3.33049            -2.42529
 90.2476            -3.33081            -2.71888
 90.3484            -3.33122            -2.83149
 90.4491            -3.33172            -2.85066
 90.5498            -3.33234            -2.85147
 90.6505            -3.33306            -2.84016
 90.7513            -3.33389            -2.75935
 90.8520            -3.33481            -2.51357
 90.9527            -3.33580            -2.04295
 91.0534            -3.33684            -1.30797
 91.1542            -3.33790            -0.47560
 91.2549            -3.33893             0.11081
 91.3556            -3.33989             0.18510
 91.4563            -3.34074            -0.38720
 91.5570            -3.34146            -1.51512
 91.6578            -3.34209            -2.89703
 91.7585            -3.34269            -4.34787
 91.8592            -3.34332            -5.75997
 91.9599            -3.34402            -6.99581
 92.0607            -3.34478            -7.96662
 92.1614            -3.34560            -8.59962
 92.2621            -3.34645            -8.86026
 92.3628            -3.34732            -8.72852
 92.4635            -3.34822            -8.21656
 92.5643            -3.34917            -7.35173
 92.6650            -3.35018            -6.19602
 92.7657            -3.35127            -4.83116
 92.8664            -3.35241            -3.38089
 92.9672            -3.35354            -1.96901
 93.0679            -3.35461            -0.72864
 93.1686            -3.35556             0.04543
 93.2693            -3.35639             0.17009
 93.3701            -3.35714            -0.27603
 93.4708            -3.35785            -1.06881
 93.5715            -3.35856            -1.86987
 93.6722            -3.35931            -2.42862
 93.7729            -3.36013            -2.74174
 93.8737            -3.36103            -2.86786
 93.9744            -3.36204            -2.89120
 94.0751            -3.36315            -2.89211
 94.1758            -3.36438            -2.88224
 94.2766            -3.36572            -2.81054
 94.3773            -3.36715            -2.58068
 94.4780            -3.36867            -2.13093
 94.5787            -3.37025            -1.41541
 94.6794            -3.37187            -0.57668
 94.7802            -3.37348             0.04546
 94.8809            -3.37503             0.17386
 94.9816            -3.37649            -0.33919
 95.0823            -3.37781            -1.42749
 95.1831            -3.37904            -2.79572
 95.2838            -3.38020            -4.24196
 95.3845            -3.38135            -5.66177
 95.4852            -3.38246            -6.91573
 95.5860            -3.38348            -7.91248
 95.6867            -3.38431            -8.57700
 95.7874            -3.38482            -8.87242
 95.8881            -3.38490            -8.77703
 95.9888            -3.38446            -8.30054
 96.0896            -3.38343            -7.46875
 96.1903            -3.38180            -6.34041
 96.2910            -3.37954            -4.99581
 96.3917            -3.37663            -3.55393
 96.4925            -3.37302            -2.14253
 96.5932            -3.36866            -0.88482
 96.6939            -3.36348            -0.06591
 96.7946            -3.35750             0.10817
 96.8954            -3.35073            -0.30102
 96.9961            -3.34322            -1.08042
 97.0968            -3.33496            -1.89671
 97.1975            -3.32592            -2.47985
 97.2982            -3.31601            -2.80953
 97.3990            -3.30508            -2.94492
 97.4997            -3.29290            -2.96604
 97.6004            -3.27922            -2.95904
 97.7011            -3.26374            -2.94073
 97.8019            -3.24609            -2.86763
 97.9026            -3.22593            -2.64327
 98.0033            -3.20288            -2.20494
 98.1040            -3.17660            -1.50215
 98.2047            -3.14677            -0.65483
 98.3055            -3.11316             0.00312
 98.4062            -3.07562             0.18239
 98.5069            -3.03408            -0.27705
 98.6076            -2.98856            -1.33370
 98.7084            -2.93927            -2.70055
 98.8091            -2.88650            -4.15798
 98.9098            -2.83069            -5.60145
 99.0105            -2.77232            -6.88976
 99.1113            -2.71191            -7.92675
 99.2120            -2.64995            -8.63450
 99.3127            -2.58688            -8.97171
 99.4134            -2.52308            -8.91285
 99.5141            -2.45883            -8.46179
 99.6149            -2.39435            -7.63775
 99.7156            -2.32977            -6.49076
 99.8163            -2.26514            -5.09123
 99.9170            -2.20046            -3.54511
100.0178            -2.13567            -1.97669
100.1185            -2.07068            -0.53362
100.2192            -2.00539             0.65583
100.3199            -1.93977             1.48723
100.4207            -1.87386             1.95457
100.5214            -1.80788             2.03370
100.6221            -1.74212             1.74608
100.7228            -1.67704             1.23150
100.8235            -1.61317             0.48769
100.9243            -1.55117            -0.40887
101.0250            -1.49174            -1.33095
101.1257            -1.43564            -2.13562
101.2264            -1.38362            -2.70354
101.3272            -1.33643            -2.94645
101.4279            -1.29474            -2.82813
101.5286            -1.25910            -2.35217
101.6293            -1.22988            -1.57658
101.7300            -1.20727            -0.59280
101.8308            -1.19127             0.47018
101.9315            -1.18169             1.49422
102.0322            -1.17815             2.37243
102.1329            -1.18019             3.06222
102.2337            -1.18723             3.55079
102.3344            -1.19867             3.88041
102.4351            -1.21386             4.11180
102.5358            -1.23218             4.20775
102.6366            -1.25302             4.13651
102.7373            -1.27585             3.92269
102.8380            -1.30023             3.51689
102.9387            -1.32582             2.66845
103.0394            -1.35241             1.33327
103.1402            -1.37987            -0.31748
103.2409            -1.40816            -2.00196
103.3416            -1.43729            -3.48265
103.4423            -1.46726            -4.62433
103.5431            -1.49809            -5.43439
103.6438            -1.52976            -5.99272
103.7445            -1.56219            -6.43310
103.8452            -1.59526            -6.94093
103.9459            -1.62877            -7.53991
104.0467            -1.66248            -8.13732
104.1474            -1.69607            -8.55031
104.2481            -1.72923            -8.59685
104.3488            -1.76159            -8.17740
104.4496            -1.79278            -7.32295
104.5503            -1.82246            -6.19545
104.6510            -1.85027            -5.01018
104.7517            -1.87592            -3.90326
104.8525            -1.89914            -2.81572
104.9532            -1.91979            -1.58280
105.0539            -1.93778            -0.30127
105.1546            -1.95313             0.89598
105.2553            -1.96593             1.93021
105.3561            -1.97634             2.74409
105.4568            -1.98457             3.34056
105.5575            -1.99085             3.73781
105.6582            -1.99541             4.02230
105.7590            -1.99852             4.17869
105.8597            -2.00041             4.17124
105.9604            -2.00134             4.00367
106.0611            -2.00154             3.68684
106.1619            -2.00121             2.99817
106.2626            -2.00053             1.80405
106.3633            -1.99961             0.22820
106.4640            -1.99855            -1.47046
106.5647            -1.99740            -3.02442
106.6655            -1.99618            -4.26815
106.7662            -1.99493            -5.16176
106.8669            -1.99367            -5.77951
106.9676            -1.99242            -6.22558
107.0684            -1.99117            -6.69479
107.1691            -1.98994            -7.26655
107.2698            -1.98873            -7.87588
107.3705            -1.98754            -8.36446
107.4712            -1.98637            -8.53680
107.5720            -1.98524            -8.26392
107.6727            -1.98412            -7.53303
107.7734            -1.98304            -6.47098
107.8741            -1.98199            -5.28954
107.9749            -1.98097            -4.16123
108.0756            -1.97998            -3.09532
108.1763            -1.97901            -1.91751
108.2770            -1.97807            -0.63589
108.3778            -1.97715             0.58719
108.4785            -1.97626             1.67715
108.5792            -1.97538             2.55233
108.6799            -1.97453             3.21383
108.7806            -1.97371             3.65902
108.8814            -1.97291             3.97270
108.9821            -1.97212             4.17098
109.0828            -1.97135             4.21547
109.1835            -1.97059             4.08951
109.2843            -1.96984             3.83017
109.3850            -1.96910             3.28167
109.4857            -1.96837             2.23521
109.5864            -1.96765             0.75259
109.6871            -1.96694            -0.94096
109.7879            -1.96623            -2.56014
109.8886            -1.96552            -3.90913
109.9893            -1.96482            -4.90237
110.0900            -1.96413            -5.59516
110.1908            -1.96343            -6.07485
110.2915            -1.96275            -6.51874
110.3922            -1.96206            -7.06228
110.4929            -1.96138            -7.67193
110.5937            -1.96070            -8.21866
110.6944            -1.96002            -8.50379
110.7951            -1.95935            -8.37321
110.8958            -1.95868            -7.77310
110.9965            -1.95801            -6.79100
111.0973            -1.95734            -5.62308
111.1980            -1.95668            -4.46828
111.2987            -1.95602            -3.39733
111.3994            -1.95537            -2.26937
111.5002            -1.95471            -0.99947
111.6009            -1.95405             0.24994
111.7016            -1.95338             1.39029
111.8023            -1.95272             2.33242
111.9031            -1.95205             3.05919
112.0038            -1.95139             3.56453
112.1045            -1.95072             3.90945
112.2052            -1.95006             4.14707
112.3059            -1.94939             4.24155
112.4067            -1.94872             4.16401
112.5074            -1.94804             3.94695
112.6081            -1.94737             3.51643
112.7088            -1.94668             2.62522
112.8096            -1.94600             1.25636
112.9103            -1.94532            -0.40435
113.0110            -1.94464            -2.07159
113.1117            -1.94396            -3.51716
113.2124            -1.94327            -4.61699
113.3132            -1.94259            -5.39159
113.4139            -1.94190            -5.92269
113.5146            -1.94122            -6.35495
113.6153            -1.94054            -6.86636
113.7161            -1.93987            -7.46506
113.8168            -1.93919            -8.05069
113.9175            -1.93851            -8.43448
114.0182            -1.93784            -8.44072
114.1190            -1.93716            -7.97950
114.2197            -1.93649            -7.09570
114.3204            -1.93582            -5.96004
114.4211            -1.93515            -4.78585
114.5218            -1.93449            -3.69464
114.6226            -1.93383            -2.60585
114.7233            -1.93316            -1.36670
114.8240            -1.93249            -0.09629
114.9247            -1.93182             1.08460
115.0255            -1.93115             2.09383
115.1262            -1.93047             2.88416
115.2269            -1.92980             3.45623
115.3276            -1.92912             3.83799
115.4284            -1.92845             4.11072
115.5291            -1.92777             4.25206
115.6298            -1.92709             4.22710
115.7305            -1.92640             4.04718
115.8312            -1.92571             3.70726
115.9320            -1.92502             2.97130
116.0327            -1.92432             1.73311
116.1334            -1.92363             0.13295
116.2341            -1.92294            -1.56183
116.3349            -1.92224            -3.09190
116.4356            -1.92155            -4.30128
116.5363            -1.92085            -5.16495
116.6370            -1.92016            -5.76035
116.7377            -1.91947            -6.19965
116.8385            -1.91878            -6.67826
116.9392            -1.91809            -7.25738
117.0399            -1.91741            -7.86355
117.1406            -1.91672            -8.32977
117.2414            -1.91604            -8.46410
117.3421            -1.91535            -8.14605
117.4428            -1.91467            -7.37658
117.5435            -1.91400            -6.29377
117.6443            -1.91332            -5.11197
117.7450            -1.91265            -3.99297
117.8457            -1.91199            -2.92506
117.9464            -1.91132            -1.73153
118.0471            -1.91065            -0.45040
118.1479            -1.90997             0.76332
118.2486            -1.90929             1.83513
118.3493            -1.90862             2.68962
118.4500            -1.90794             3.32992
118.5508            -1.90726             3.75820
118.6515            -1.90658             4.06236
118.7522            -1.90591             4.24755
118.8529            -1.90522             4.27572
118.9536            -1.90454             4.13592
119.0544            -1.90385             3.86061
119.1551            -1.90316             3.27011
119.2558            -1.90247             2.17617
119.3565            -1.90178             0.66194
119.4573            -1.90108            -1.03610
119.5580            -1.90039            -2.63641
119.6587            -1.89970            -3.95301
119.7594            -1.89901            -4.91397
119.8602            -1.89832            -5.58239
119.9609            -1.89763            -6.04933
120.0616            -1.89694            -6.49997
120.1623            -1.89626            -7.05286
120.2630            -1.89558            -7.66377
120.3638            -1.89490            -8.19426
120.4645            -1.89422            -8.44538
120.5652            -1.89355            -8.27049
120.6659            -1.89287            -7.62826
120.7667            -1.89220            -6.61896
120.8674            -1.89153            -5.44492
120.9681            -1.89087            -4.29794
121.0688            -1.89021            -3.23056
121.1696            -1.88955            -2.08758
121.2703            -1.88889            -0.81194
121.3710            -1.88822             0.42964
121.4717            -1.88756             1.55525
121.5724            -1.88689             2.47616
121.6732            -1.88622             3.18268
121.7739            -1.88555             3.66819
121.8746            -1.88488             4.00294
121.9753            -1.88421             4.22864
122.0761            -1.88354             4.30774
122.1768            -1.88287             4.21440
122.2775            -1.88220             3.98508
122.3782            -1.88151             3.52032
122.4789            -1.88083             2.57991
122.5797            -1.88015             1.17331
122.6804            -1.87947            -0.50075
122.7811            -1.87879            -2.15491
122.8818            -1.87811            -3.57130
122.9826            -1.87743            -4.63708
123.0833            -1.87675            -5.38524
123.1840            -1.87607            -5.89857
123.2847            -1.87540            -6.33268
123.3855            -1.87472            -6.85448
123.4862            -1.87405            -7.45768
123.5869            -1.87338            -8.03317
123.6876            -1.87271            -8.38761
123.7883            -1.87205            -8.35167
123.8891            -1.87138            -7.84615
123.9898            -1.87072            -6.92961
124.0905            -1.87006            -5.78164
124.1912            -1.86941            -4.61248
124.2920            -1.86876            -3.52881
124.3927            -1.86811            -2.42943
124.4934            -1.86746            -1.17867
124.5941            -1.86681             0.08595
124.6948            -1.86615             1.25509
124.7956            -1.86549             2.24346
124.8963            -1.86483             3.01387
124.9970            -1.86417             3.56456
125.0977            -1.86351             3.93384
125.1985            -1.86286             4.19597
125.2992            -1.86220             4.32291
125.3999            -1.86153             4.28117
125.5006            -1.86087             4.08954
125.6014            -1.86020             3.72411
125.7021            -1.85952             2.93991
125.8028            -1.85885             1.65899
125.9035            -1.85817             0.03691
126.0042            -1.85750            -1.65169
126.1050            -1.85683            -3.15664
126.2057            -1.85615            -4.33161
126.3064            -1.85548            -5.16643
126.4071            -1.85481            -5.74055
126.5079            -1.85414            -6.17544
126.6086            -1.85347            -6.66419
126.7093            -1.85281            -7.25027
126.8100            -1.85214            -7.85188
126.9108            -1.85148            -8.29408
127.0115            -1.85082            -8.38930
127.1122            -1.85016            -8.02606
127.2129            -1.84950            -7.21915
127.3136            -1.84884            -6.11748
127.4144            -1.84820            -4.93662
127.5151            -1.84755            -3.82671
127.6158            -1.84690            -2.75450
127.7165            -1.84626            -1.54556
127.8173            -1.84561            -0.26637
127.9180            -1.84496             0.93768
128.0187            -1.84430             1.99055
128.1194            -1.84364             2.82467
128.2201            -1.84299             3.44358
128.3209            -1.84233             3.85606
128.4216            -1.84167             4.15058
128.5223            -1.84102             4.32231
128.6230            -1.84036             4.33387
128.7238            -1.83969             4.18084
128.8245            -1.83903             3.88762
128.9252            -1.83835             3.25309
129.0259            -1.83768             2.11252
129.1267            -1.83701             0.56876
129.2274            -1.83634            -1.13113
129.3281            -1.83567            -2.71102
129.4288            -1.83499            -3.99455
129.5295            -1.83432            -4.92404
129.6303            -1.83365            -5.56880
129.7310            -1.83298            -6.02487
129.8317            -1.83231            -6.48345
129.9324            -1.83164            -7.04519
130.0332            -1.83098            -7.65616
130.1339            -1.83031            -8.16850
130.2346            -1.82965            -8.38431
130.3353            -1.82899            -8.16467
130.4361            -1.82833            -7.48130
130.5368            -1.82767            -6.44672
130.6375            -1.82702            -5.26844
130.7382            -1.82637            -4.12987
130.8389            -1.82573            -3.06444
130.9397            -1.82508            -1.90576
131.0404            -1.82443            -0.62640
131.1411            -1.82378             0.60690
131.2418            -1.82312             1.71666
131.3426            -1.82246             2.61648
131.4433            -1.82180             3.30244
131.5440            -1.82114             3.76894
131.6447            -1.82049             4.09385
131.7454            -1.81983             4.30724
131.8462            -1.81917             4.37062
131.9469            -1.81850             4.26201
132.0476            -1.81783             4.01958
132.1483            -1.81716             3.51795
132.2491            -1.81648             2.52858
132.3498            -1.81581             1.08607
132.4505            -1.81513            -0.59861
132.5512            -1.81446            -2.23776
132.6520            -1.81378            -3.62389
132.7527            -1.81310            -4.65604
132.8534            -1.81243            -5.37849
132.9541            -1.81175            -5.87542
133.0548            -1.81108            -6.31315
133.1556            -1.81041            -6.84507
133.2563            -1.80974            -7.45188
133.3570            -1.80907            -8.01528
133.4577            -1.80841            -8.33886
133.5585            -1.80774            -8.25990
133.6592            -1.80708            -7.71066
133.7599            -1.80642            -6.76298
133.8606            -1.80576            -5.60474
133.9613            -1.80510            -4.44158
134.0621            -1.80445            -3.36450
134.1628            -1.80380            -2.25278
134.2635            -1.80315            -0.99217
134.3642            -1.80249             0.26593
134.4650            -1.80183             1.42241
134.5657            -1.80117             2.38972
134.6664            -1.80051             3.14017
134.7671            -1.79984             3.66984
134.8679            -1.79918             4.02749
134.9686            -1.79852             4.27870
135.0693            -1.79786             4.39089
135.1700            -1.79719             4.33262
135.2707            -1.79652             4.12938
135.3715            -1.79584             3.73580
135.4722            -1.79516             2.90269
135.5729            -1.79448             1.58058
135.6736            -1.79380            -0.06085
135.7744            -1.79312            -1.74089
135.8751            -1.79244            -3.21944
135.9758            -1.79176            -4.35985
136.0765            -1.79108            -5.16666
136.1773            -1.79040            -5.72037
136.2780            -1.78972            -6.15294
136.3787            -1.78905            -6.65198
136.4794            -1.78837            -7.24435
136.5801            -1.78770            -7.83963
136.6809            -1.78703            -8.25610
136.7816            -1.78636            -8.31107
136.8823            -1.78569            -7.90281
136.9830            -1.78502            -7.05974
137.0838            -1.78436            -5.94132
137.1845            -1.78370            -4.76270
137.2852            -1.78304            -3.66169
137.3859            -1.78238            -2.58300
137.4866            -1.78173            -1.35955
137.5874            -1.78106            -0.08359
137.6881            -1.78040             1.11019
137.7888            -1.77973             2.14349
137.8895            -1.77906             2.95740
137.9903            -1.77839             3.55492
138.0910            -1.77772             3.95265
138.1917            -1.77705             4.23743
138.2924            -1.77638             4.39536
138.3932            -1.77571             4.39029
138.4939            -1.77503             4.22458
138.5946            -1.77434             3.91143
138.6953            -1.77365             3.23115
138.7960            -1.77296             2.04516
138.8968            -1.77228             0.47408
138.9975            -1.77159            -1.22491
139.0982            -1.77090            -2.78289
139.1989            -1.77020            -4.03262
139.2997            -1.76951            -4.93150
139.4004            -1.76882            -5.55315
139.5011            -1.76813            -6.00038
139.6018            -1.76744            -6.46768
139.7025            -1.76675            -7.03781
139.8033            -1.76606            -7.64739
139.9040            -1.76538            -8.13976
140.0047            -1.76469            -8.31888
140.1054            -1.76401            -8.05430
140.2062            -1.76332            -7.33072
140.3069            -1.76264            -6.27290
140.4076            -1.76196            -5.09198
140.5083            -1.76128            -3.96230
140.6091            -1.76061            -2.89682
140.7098            -1.75993            -1.72215
140.8105            -1.75925            -0.44083
140.9112            -1.75857             0.78373
141.0119            -1.75788             1.87678
141.1127            -1.75719             2.75567
141.2134            -1.75650             3.42097
141.3141            -1.75581             3.86934
141.4148            -1.75512             4.18481
141.5156            -1.75443             4.38547
141.6163            -1.75373             4.43298
141.7170            -1.75303             4.30966
141.8177            -1.75233             4.05316
141.9185            -1.75162             3.51210
142.0192            -1.75091             2.47446
142.1199            -1.75019             0.99786
142.2206            -1.74948            -0.69448
142.3213            -1.74877            -2.31686
142.4221            -1.74806            -3.67155
142.5228            -1.74735            -4.67070
142.6235            -1.74663            -5.36792
142.7242            -1.74592            -5.85014
142.8250            -1.74521            -6.29291
142.9257            -1.74451            -6.83477
143.0264            -1.74380            -7.44407
143.1271            -1.74309            -7.99362
143.2278            -1.74239            -8.28477
143.3286            -1.74169            -8.16224
143.4293            -1.74099            -7.56982
143.5300            -1.74029            -6.59285
143.6307            -1.73960            -5.42612
143.7315            -1.73891            -4.26992
143.8322            -1.73822            -3.19796
143.9329            -1.73754            -2.07251
144.0336            -1.73685            -0.80363
144.1344            -1.73616             0.44728
144.2351            -1.73548             1.59042
144.3358            -1.73478             2.53649
144.4365            -1.73409             3.26708
144.5372            -1.73340             3.77610
144.6380            -1.73272             4.12300
144.7387            -1.73203             4.36267
144.8394            -1.73134             4.45993
144.9401            -1.73065             4.38519
145.0409            -1.72996             4.17028
145.1416            -1.72926             3.74557
145.2423            -1.72856             2.86333
145.3430            -1.72785             1.50143
145.4438            -1.72715            -0.15646
145.5445            -1.72645            -1.82586
145.6452            -1.72574            -3.27644
145.7459            -1.72502            -4.38248
145.8466            -1.72430            -5.16182
145.9474            -1.72358            -5.69634
146.0481            -1.72284            -6.12845
146.1488            -1.72210            -6.63815
146.2495            -1.72134            -7.23605
146.3503            -1.72055            -7.82363
146.4510            -1.71975            -8.21272
146.5517            -1.71891            -8.22680
146.6524            -1.71803            -7.77370
146.7531            -1.71710            -6.89610
146.8539            -1.71612            -5.76265
146.9546            -1.71506            -4.58746
147.0553            -1.71391            -3.49428
147.1560            -1.71265            -2.40680
147.2568            -1.71125            -1.16930
147.3575            -1.70967             0.10244
147.4582            -1.70788             1.28583
147.5589            -1.70583             2.29884
147.6597            -1.70348             3.09277
147.7604            -1.70075             3.66824
147.8611            -1.69757             4.05180
147.9618            -1.69385             4.32542
148.0625            -1.68945             4.46841
148.1633            -1.68424             4.44531
148.2640            -1.67804             4.26664
148.3647            -1.67066             3.93012
148.4654            -1.66193             3.20244
148.5662            -1.65166             1.97196
148.6669            -1.63970             0.37657
148.7676            -1.62594            -1.31835
148.8683            -1.61029            -2.85151
148.9690            -1.59276            -4.06584
149.0698            -1.57341            -4.93332
149.1705            -1.55240            -5.53163
149.2712            -1.52998            -5.97103
149.3719            -1.50649            -6.44763
149.4727            -1.48236            -7.02533
149.5734            -1.45811            -7.63254
149.6741            -1.43429            -8.10295
149.7748            -1.41151            -8.24406
149.8756            -1.39034            -7.93282
149.9763            -1.37133            -7.16787
150.0770            -1.35498            -6.08447
150.1777            -1.34166            -4.89709
150.2784            -1.33168            -3.76905
150.3792            -1.32521            -2.69328
150.4799            -1.32231            -1.49282
150.5806            -1.32300            -0.20109
150.6813            -1.32722             1.02602
150.7821            -1.33493             2.11372
150.8828            -1.34605             2.98647
150.9835            -1.36053             3.64729
151.0842            -1.37834             4.09897
151.1850            -1.39949             4.42970
151.2857            -1.42406             4.64863
151.3864            -1.45220             4.71880
151.4871            -1.48420             4.63062
151.5878            -1.52051             4.41929
151.6886            -1.56169             3.91206
151.7893            -1.60846             2.91895
151.8900            -1.66158             1.52242
151.9907            -1.72185            -0.03975
152.0915            -1.79001            -1.48159
152.1922            -1.86667            -2.60957
152.2929            -1.95229            -3.34427
152.3936            -2.04709            -3.73823
152.4943            -2.15098            -3.90565
152.5951            -2.26353            -3.97170
152.6958            -2.38399            -3.97989
152.7965            -2.51126            -3.88903
152.8972            -2.64398            -3.58220
152.9980            -2.78062            -2.96606
153.0987            -2.91953            -2.01274
153.1994            -3.05908            -0.83563
153.3001            -3.19774             0.34853
153.4009            -3.33414             1.22828
153.5016            -3.46721             1.57254
153.6023            -3.59616             1.29360
153.7030            -3.72054             0.66323
153.8037            -3.84023            -0.21821
153.9045            -3.95539            -1.63130
154.0052            -4.06637            -3.57530
154.1059            -4.17371            -6.01672
154.2066            -4.27805            -8.72967
154.3074            -4.38010           -11.42184
154.4081            -4.48059           -13.73743
154.5088            -4.58018           -15.37907
154.6095            -4.67945           -16.12492
154.7102            -4.77877           -15.88856
154.8110            -4.87824           -14.68885
154.9117            -4.97763           -12.68319
155.0124            -5.07628           -10.12120
155.1131            -5.17320            -7.34761
155.2139            -5.26706            -4.69226
155.3146            -5.35639            -2.44409
155.4153            -5.43961            -0.74024
155.5160            -5.51524             0.40037
155.6168            -5.58197             1.07315
155.7175            -5.63879             1.49856
155.8182            -5.68510             1.62761
155.9189            -5.72077             1.42439
156.0196            -5.74619             0.94067
156.1204            -5.76222             0.20298
156.2211            -5.77013            -1.02218
156.3218            -5.77153            -2.79410
156.4225            -5.76821            -5.09238
156.5233            -5.76210            -7.74800
156.6240            -5.75507           -10.47052
156.7247            -5.74886           -12.92058
156.8254            -5.74495           -14.77026
156.9262            -5.74451           -15.78110
157.0269            -5.74831           -15.82270
157.1276            -5.75669           -14.89206
157.2283            -5.76954           -13.10352
157.3290            -5.78635           -10.69160
157.4298            -5.80622            -7.97343
157.5305            -5.82794            -5.29705
157.6312            -5.85006            -2.95356
157.7319            -5.87103            -1.13466
157.8327            -5.88930             0.13814
157.9334            -5.90343             0.90235
158.0341            -5.91223             1.39699
158.1348            -5.91487             1.61794
158.2355            -5.91097             1.50703
158.3363            -5.90069             1.09233
158.4370            -5.88466             0.43892
158.5377            -5.86397            -0.65497
158.6384            -5.84005            -2.30680
158.7392            -5.81457            -4.49616
158.8399            -5.78929            -7.10498
158.9406            -5.76598            -9.84756
159.0413            -5.74623           -12.40099
159.1421            -5.73139           -14.41514
159.2428            -5.72243           -15.63665
159.3435            -5.71994           -15.89936
159.4442            -5.72402           -15.18049
159.5449            -5.73432           -13.55929
159.6457            -5.75006           -11.25520
159.7464            -5.77007            -8.56165
159.8471            -5.79284            -5.83965
159.9478            -5.81668            -3.38596
160.0486            -5.83981            -1.43792
160.1493            -5.86049            -0.03279
160.2500            -5.87715             0.82925
160.3507            -5.88849             1.37245
160.4515            -5.89361             1.65951
160.5522            -5.89207             1.61474
160.6529            -5.88395             1.24848
160.7536            -5.86979             0.64160
160.8543            -5.85061            -0.34669
160.9551            -5.82778            -1.89289
161.0558            -5.80292            -3.97731
161.1565            -5.77779            -6.52815
161.2572            -5.75417            -9.27363
161.3580            -5.73372           -11.90704
161.4587            -5.71785           -14.06559
161.5594            -5.70764           -15.48039
161.6601            -5.70378           -15.95534
161.7608            -5.70648           -15.44549
161.8616            -5.71550           -13.99951
161.9623            -5.73017           -11.81699
162.0630            -5.74939            -9.16944
162.1637            -5.77173            -6.42061
162.2645            -5.79554            -3.87596
162.3652            -5.81905            -1.80472
162.4659            -5.84048            -0.27408
162.5666            -5.85823             0.69772
162.6674            -5.87093             1.29358
162.7681            -5.87757             1.64769
162.8688            -5.87763             1.67944
162.9695            -5.87104             1.38104
163.0702            -5.85826             0.82986
163.1710            -5.84021            -0.04421
163.2717            -5.81818            -1.46218
163.3724            -5.79375            -3.42124
163.4731            -5.76867            -5.88218
163.5739            -5.74471            -8.60408
163.6746            -5.72358           -11.29022
163.7753            -5.70676           -13.57929
163.8760            -5.69540           -15.18087
163.9767            -5.69028           -15.87748
164.0775            -5.69172           -15.59338
164.1782            -5.69959           -14.35313
164.2789            -5.71330           -12.32593
164.3796            -5.73185            -9.76598
164.4804            -5.75387            -7.02473
164.5811            -5.77775            -4.42260
164.6818            -5.80171            -2.24400
164.7825            -5.82400            -0.60138
164.8833            -5.84295             0.48456
164.9840            -5.85712             1.13768
165.0847            -5.86544             1.55379
165.1854            -5.86724             1.66453
165.2861            -5.86238             1.44314
165.3869            -5.85119             0.94937
165.4876            -5.83448             0.18016
165.5883            -5.81349            -1.10395
165.6890            -5.78973            -2.93589
165.7898            -5.76494            -5.29308
165.8905            -5.74087            -7.97829
165.9912            -5.71928           -10.69927
166.0919            -5.70168           -13.10550
166.1927            -5.68932           -14.88128
166.2934            -5.68306           -15.79252
166.3941            -5.68332           -15.72768
166.4948            -5.69008           -14.69120
166.5955            -5.70283           -12.81715
166.6963            -5.72067           -10.34600
166.7970            -5.74229            -7.60921
166.8977            -5.76612            -4.94588
166.9984            -5.79041            -2.64770
167.0992            -5.81337            -0.88000
167.1999            -5.83325             0.33578
167.3006            -5.84855             1.06358
167.4013            -5.85801             1.53473
167.5020            -5.86081             1.71749
167.6028            -5.85657             1.56367
167.7035            -5.84537             1.11289
167.8042            -5.82773             0.41270
167.9049            -5.80455            -0.75848
168.0057            -5.77696            -2.48623
168.1064            -5.74624            -4.74895
168.2071            -5.71369            -7.40078
168.3078            -5.68051           -10.15068
168.4086            -5.64769           -12.66577
168.5093            -5.61593           -14.60488
168.6100            -5.58559           -15.72206
168.7107            -5.55664           -15.86874
168.8114            -5.52863           -15.03362
168.9122            -5.50073           -13.31456
169.0129            -5.47178           -10.94127
169.1136            -5.44027            -8.22069
169.2143            -5.40446            -5.51024
169.3151            -5.36246            -3.10428
169.4158            -5.31233            -1.21927
169.5165            -5.25223             0.11773
169.6172            -5.18048             0.92332
169.7180            -5.09572             1.43487
169.8187            -4.99696             1.67945
169.9194            -4.88368             1.59180
170.0201            -4.75584             1.19227
170.1208            -4.61386             0.55873
170.2216            -4.45855            -0.48315
170.3223            -4.29101            -2.07844
170.4230            -4.11255            -4.20675
170.5237            -3.92453            -6.77338
170.6245            -3.72830            -9.50027
170.7252            -3.52508           -12.07411
170.8259            -3.31588           -14.14122
170.9266            -3.10145           -15.44296
171.0273            -2.88229           -15.80187
171.1281            -2.65862           -15.18508
171.2288            -2.43046           -13.65757
171.3295            -2.19769           -11.42468
171.4302            -1.96008            -8.76402
171.5310            -1.71741            -6.02594
171.6317            -1.46943            -3.49886
171.7324            -1.21599            -1.41557
171.8331            -0.95703             0.19137
171.9339            -0.69262             1.33936
172.0346            -0.42300             2.25451
172.1353            -0.14859             3.06822
172.2360             0.12992             3.71621
172.3367             0.41164             4.23982
172.4375             0.69540             4.65130
172.5382             0.97981             4.97930
172.6389             1.26330             5.23437
172.7396             1.54420             5.43601
172.8404             1.82082             5.59149
172.9411             2.09154             5.71394
173.0418             2.35490             5.80771
173.1425             2.60968             5.88155
173.2432             2.85493             5.93774
173.3440             3.09001             5.98213
173.4447             3.31458             6.01567
173.5454             3.52853             6.04234
173.6461             3.73195             6.06231
173.7469             3.92502             6.07836
173.8476             4.10806             6.09021
173.9483             4.28139             6.09989
174.0490             4.44534             6.10691
174.1498             4.60024             6.11277
174.2505             4.74637             6.11690
174.3512             4.88394             6.12047
174.4519             5.01315             6.12287
174.5526             5.13414             6.12507
174.6534             5.24703             6.12645
174.7541             5.35193             6.12782
174.8548             5.44894             6.12860
174.9555             5.53817             6.12947
175.0563             5.61973             6.12988
175.1570             5.69375             6.13045
175.2577             5.76036             6.13066
175.3584             5.81974             6.13104
175.4592             5.87213             6.13112
175.5599             5.91779             6.13139
175.6606             5.95709             6.13140
175.7613             5.99046             6.13159
175.8620             6.01841             6.13157
175.9628             6.04149             6.13172
176.0635             6.06030             6.13167
176.1642             6.07546             6.13179
176.2649             6.08755             6.13174
176.3657             6.09714             6.13184
176.4664             6.10469             6.13178
176.5671             6.11064             6.13186
176.6678             6.11531             6.13180
176.7685             6.11898             6.13188
176.8693             6.12186             6.13182
176.9700             6.12410             6.13189
177.0707             6.12584             6.13183
177.1714             6.12720             6.13189
177.2722             6.12826             6.13183
177.3729             6.12907             6.13190
177.4736             6.12971             6.13184
177.5743             6.13020             6.13190
177.6751             6.13058             6.13184
177.7758             6.13087             6.13190
177.8765             6.13110             6.13185
177.9772             6.13127             6.13190
178.0779             6.13141             6.13185
178.1787             6.13152             6.13190
178.2794             6.13160             6.13185
178.3801             6.13166             6.13190
178.4808             6.13171             6.13185
178.5816             6.13175             6.13190
178.6823             6.13178             6.13186
178.7830             6.13180             6.13190
178.8837             6.13182             6.13186
178.9844             6.13183             6.13190
179.0852             6.13184             6.13186
179.1859             6.13185             6.13190
179.2866             6.13186             6.13186
179.3873             6.13186             6.13190
179.4881             6.13187             6.13186
179.5888             6.13187             6.13190
179.6895             6.13187             6.13186
179.7902             6.13187             6.13190
179.8910             6.13188             6.13186
179.9917             6.13188             6.13190
180.0924             6.13188             6.13186
180.1931             6.13188             6.13190
180.2938             6.13188             6.13187
180.3946             6.13188             6.13190
180.4953             6.13188             6.13187
180.5960             6.13188             6.13190
180.6967             6.13188             6.13187
180.7975             6.13188             6.13190
180.8982             6.13188             6.13187
180.9989             6.13188             6.13190
181.0996             6.13188             6.13187
181.2004             6.13188             6.13190
181.3011             6.13188             6.13187
181.4018             6.13188             6.13190
181.5025             6.13188             6.13187
181.6032             6.13188             6.13190
181.7040             6.13188             6.13187
181.8047             6.13189             6.13190
181.9054             6.13190             6.13187
182.0061             6.13193             6.13190
182.1069             6.13200             6.13187
182.2076             6.13215             6.13190
182.3083             6.13242             6.13187
182.4090             6.13284             6.13190
182.5097             6.13346             6.13187
182.6105             6.13433             6.13190
182.7112             6.13548             6.13187
182.8119             6.13697             6.13190
182.9126             6.13884             6.13187
183.0134             6.14113             6.13190
183.1141             6.14389             6.13187
183.2148             6.14716             6.13190
183.3155             6.15099             6.13188
183.4163             6.15542             6.13190
183.5170             6.16049             6.13188
183.6177             6.16626             6.13190
183.7184             6.17276             6.13188
183.8191             6.18004             6.13190
183.9199             6.18815             6.13188
184.0206             6.19712             6.13190
184.1213             6.20701             6.13188
184.2220             6.21786             6.13190
184.3228             6.22970             6.13188
184.4235             6.24260             6.13190
184.5242             6.25658             6.13188
184.6249             6.27171             6.13190
184.7257             6.28801             6.13188
184.8264             6.30554             6.13190
184.9271             6.32434             6.13188
185.0278             6.34445             6.13190
185.1285             6.36591             6.13188
185.2293             6.38876             6.13190
185.3300             6.41299             6.13188
185.4307             6.43857             6.13189
185.5314             6.46547             6.13188
185.6322             6.49361             6.13189
185.7329             6.52291             6.13188
185.8336             6.55328             6.13189
185.9343             6.58463             6.13188
186.0350             6.61687             6.13189
186.1358             6.64991             6.13188
186.2365             6.68366             6.13189
186.3372             6.71804             6.13188
186.4379             6.75296             6.13189
186.5387             6.78831             6.13188
186.6394             6.82403             6.19265
186.7401             6.86001             6.36588
186.8408             6.89617             6.62558
186.9416             6.93242             6.93241
187.0423             6.96867             7.23927
187.1430             7.00483             7.49895
187.2437             7.04081             7.67221
187.3444             7.07653             7.73295
187.4452             7.11189             7.73296
187.5459             7.14680             7.73295
187.6466             7.18118             7.73296
187.7473             7.21493             7.73295
187.8481             7.24797             7.73296
187.9488             7.28021             7.73295
188.0495             7.31156             7.73296
188.1502             7.34193             7.73295
188.2509             7.37123             7.73296
188.3517             7.39937             7.73295
188.4524             7.42627             7.73296
188.5531             7.45185             7.73295
188.6538             7.47608             7.73296
188.7546             7.49893             7.73295
188.8553             7.52039             7.73296
188.9560             7.54050             7.73295
189.0567             7.55930             7.73296
189.1575             7.57683             7.73295
189.2582             7.59313             7.73296
189.3589             7.60825             7.73295
189.4596             7.62224             7.73296
189.5603             7.63514             7.73295
189.6611             7.64698             7.73296
189.7618             7.65783             7.73295
189.8625             7.66772             7.73296
189.9632             7.67669             7.73295
190.0640             7.68479             7.73296
190.1647             7.69208             7.73295
190.2654             7.69858             7.73296
190.3661             7.70434             7.73295
190.4669             7.70942             7.73296
190.5676             7.71385             7.73295
190.6683             7.71768             7.73296
190.7690             7.72095             7.73295
190.8697             7.72371             7.73296
190.9705             7.72600             7.73295
191.0712             7.72787             7.73296
191.1719             7.72936             7.73295
191.2726             7.73051             7.73296
191.3734             7.73138             7.73295
191.4741             7.73200             7.73296
191.5748             7.73242             7.73295
191.6755             7.73268             7.73296
191.7762             7.73283             7.73295
191.8770             7.73291             7.73295
191.9777             7.73294             7.73295
192.0784             7.73295             7.73295
192.1791             7.73295             7.73295
192.2799             7.73295             7.73295
192.3806             7.73295             7.73295
192.4813             7.73295             7.73295
192.5820             7.73295             7.73295
192.6828             7.73295             7.73295
192.7835             7.73295             7.73295
192.8842             7.73295             7.73295
192.9849             7.73295             7.73295
193.0856             7.73295             7.73295
193.1864             7.73295             7.73295
193.2871             7.73295             7.73295
193.3878             7.73295             7.73295
193.4885             7.73295             7.73295
193.5893             7.73295             7.73294
193.6900             7.73295             7.73295
193.7907             7.73295             7.73294
193.8914             7.73295             7.73295
193.9921             7.73295             7.73294
194.0929             7.73295             7.73295
194.1936             7.73295             7.73294
194.2943             7.73295             7.73295
194.3950             7.73295             7.73294
194.4958             7.73295             7.73295
194.5965             7.73295             7.73294
194.6972             7.73295             7.73295
194.7979             7.73295             7.73294
194.8987             7.73295             7.73295
194.9994             7.73295             7.73294
195.1001             7.73295             7.73295
195.2008             7.73295             7.73294
195.3015             7.73294             7.73295
195.4023             7.73294             7.73294
195.5030             7.73294             7.73295
195.6037             7.73294             7.73294
195.7044             7.73294             7.73295
195.8052             7.73294             7.73294
195.9059             7.73294             7.73295
196.0066             7.73294             7.73294
196.1073             7.73294             7.73295
196.2081             7.73294             7.73294
196.3088             7.73294             7.73295
196.4095             7.73294             7.73294
196.5102             7.73294             7.73295
196.6109             7.73294             7.73294
196.7117             7.73294             7.73294
196.8124             7.73294             7.73294
196.9131             7.73294             7.73294
197.0138             7.73294             7.73294
197.1146             7.73294             7.73294
197.2153             7.73294             7.73294
197.3160             7.73294             7.73294
197.4167             7.73294             7.73294
197.5174             7.73294             7.73294
197.6182             7.73294             7.73294
197.7189             7.73294             7.73294
197.8196             7.73294             7.73294
197.9203             7.73294             7.73294
198.0211             7.73294             7.73294
198.1218             7.73294             7.73294
198.2225             7.73294             7.73294
198.3232             7.73294             7.73294
198.4240             7.73294             7.73294
198.5247             7.73294             7.73294
198.6254             7.73294             7.73294
198.7261             7.73294             7.73294
198.8268             7.73294             7.73294
198.9276             7.73294             7.73294
199.0283             7.73294             7.73294
199.1290             7.73294             7.73294
199.2297             7.73294             7.73294
199.3305             7.73294             7.73294
199.4312             7.73294             7.73294
199.5319             7.73294             7.73294
199.6326             7.73294             7.73293
199.7334             7.73294             7.73294
199.8341             7.73294             7.73293
199.9348             7.73293             7.73294
200.0355             7.73293             7.73293
200.1362             7.73293             7.73294
200.2370             7.73293             7.73293
200.3377             7.73293             7.73294
200.4384             7.73293             7.73293
200.5391             7.73293             7.73293
200.6399             7.73293             7.73293
200.7406             7.73293             7.73293
200.8413             7.73293             7.73293
200.9420             7.73293             7.73293
201.0427             7.73293             7.73293
201.1435             7.73293             7.73293
201.2442             7.73293             7.73293
201.3449             7.73293             7.73293
